%%%%%%%%%%%%%%%%%%%%%%%%%%%%%%%%%%%%%%%%%%%%%%%%%%%%%%%%%%%%%%%%%%%%%%%%%%%%%%

                                        John R. Barker
              MultiWell-2020            University of Michigan
                                        Ann Arbor, MI 48109-2143
                Feb 2020                jrbarker@umich.edu
                                        (734) 763 6239

              http://clasp-research.engin.umich.edu/multiwell/

%%%%%%%%%%%%%%%%%%%%%%%%%%%%%%%%%%%%%%%%%%%%%%%%%%%%%%%%%%%%%%%%%%%%%%%%%%%%%%

        Suggested Literature Citations:

    a) J.R. Barker, T.L. Nguyen, J.F. Stanton, C. Aieta, M. Ceotto,
       F. Gabas, T.J.D. Kumar, C.G.L.Li, L.L.Lohr, A. Maranzana,
       N.F. Ortiz, J.M. Preses, J.M. Simmie, J.A. Sonk, and P.J. Stimac; 
       MultiWell-2020    Software Suite; University of Michigan, 
       Ann Arbor, Michigan, USA, Feb 2020; 
       http://clasp-research.engin.umich.edu/multiwell/.

    b) J.R. Barker, Int. J. Chem. Kinetics, 33, 232-45 (2001)

    c) J.R. Barker, Int. J. Chem. Kinetics, 41, 748-763 (2009)

%%%%%%%%%%%%%%%%%%%%%%%%%%%%%%%%%%%%%%%%%%%%%%%%%%%%%%%%%%%%%%%%%%%%%%%%%%%%%%


....................................................
          2020/08/27   08:45:39.784   (Local Time)
          year/mm/dd   hr:mi:second
                 CPU :        0.004 s (  0.000 hr)
....................................................
Ge2H6 dissociation                                                                                  

PARAMETERS FOR DOUBLE-ARRAYS:
        Grain (cm-1)      Maximum Energy    Number of grains
              10.000            2490.000                 250
             341.365           85000.000                 250


TEMPERATURES:
        Translational Temperature =  1500.0 K
  Initial Vibrational Temperature =  1500.0 K


  1 WELLS and  1 PRODUCTS

  Molec_No.:          1          2
 Molec_Name: Ge2H6_____  GeH2+GeH4
 delH(cm-1):    13535.5    12940.9
   delH(kJ):      161.9      154.8
 delH(kcal):       38.7       37.0
 lowest_vib:      144.0
  2D-moment:      228.0
   ext_symm:         18
Qel_partfxn:       1.00
   opt_isom:          1
 Thermal<E>:    11824.9

Units: 2D-moment : amu Ang^2       Thermal<E>: cm-1 (at Translational T)

     Densities of States
     Energy  Ge2H6_____
        0.0  3.000E-01
       10.0  3.975E-31
       20.0  2.000E-01
       30.0  3.975E-31
       40.0  2.000E-01
       50.0  3.975E-31
       60.0  2.000E-01
       70.0  3.975E-31
       80.0  3.975E-31
       90.0  3.975E-31
      100.0  2.000E-01
      110.0  3.975E-31
      120.0  3.975E-31
      130.0  3.975E-31
      140.0  5.000E-01
      150.0  3.975E-31
      160.0  2.000E-01
      170.0  3.975E-31
      180.0  2.000E-01
      190.0  3.975E-31
      200.0  4.000E-01
      210.0  3.975E-31
      220.0  3.975E-31
      230.0  3.000E-01
      240.0  2.000E-01
      250.0  4.000E-01
      260.0  3.975E-31
      270.0  2.000E-01
      280.0  2.000E-01
      290.0  5.000E-01
      300.0  3.975E-31
      310.0  2.000E-01
      320.0  2.000E-01
      330.0  4.000E-01
      340.0  2.000E-01
      350.0  2.000E-01
      360.0  3.975E-31
      370.0  5.000E-01
      380.0  3.975E-31
      390.0  6.000E-01
      400.0  2.000E-01
      410.0  8.000E-01
      420.0  6.000E-01
      430.0  1.300E+00
      440.0  4.000E-01
      450.0  6.000E-01
      460.0  9.000E-01
      470.0  8.000E-01
      480.0  1.000E+00
      490.0  4.000E-01
      500.0  2.000E-01
      510.0  6.000E-01
      520.0  9.000E-01
      530.0  2.000E-01
      540.0  6.000E-01
      550.0  1.200E+00
      560.0  1.400E+00
      570.0  1.000E+00
      580.0  9.000E-01
      590.0  4.000E-01
      600.0  1.100E+00
      610.0  1.000E+00
      620.0  1.800E+00
      630.0  4.000E-01
      640.0  1.000E+00
      650.0  1.000E+00
      660.0  2.100E+00
      670.0  1.000E+00
      680.0  1.000E+00
      690.0  1.500E+00
      700.0  1.800E+00
      710.0  1.800E+00
      720.0  1.300E+00
      730.0  1.000E+00
      740.0  1.600E+00
      750.0  1.900E+00
      760.0  1.500E+00
      770.0  1.500E+00
      780.0  2.000E+00
      790.0  1.600E+00
      800.0  2.000E+00
      810.0  3.100E+00
      820.0  1.500E+00
      830.0  3.900E+00
      840.0  2.500E+00
      850.0  4.400E+00
      860.0  2.100E+00
      870.0  3.600E+00
      880.0  3.000E+00
      890.0  4.100E+00
      900.0  4.500E+00
      910.0  2.900E+00
      920.0  3.300E+00
      930.0  3.200E+00
      940.0  3.400E+00
      950.0  3.700E+00
      960.0  3.500E+00
      970.0  5.600E+00
      980.0  4.000E+00
      990.0  4.500E+00
     1000.0  3.500E+00
     1010.0  5.100E+00
     1020.0  4.400E+00
     1030.0  5.800E+00
     1040.0  6.700E+00
     1050.0  3.400E+00
     1060.0  6.400E+00
     1070.0  4.500E+00
     1080.0  7.800E+00
     1090.0  4.300E+00
     1100.0  7.000E+00
     1110.0  5.700E+00
     1120.0  7.700E+00
     1130.0  7.200E+00
     1140.0  6.100E+00
     1150.0  7.400E+00
     1160.0  7.200E+00
     1170.0  7.400E+00
     1180.0  7.700E+00
     1190.0  8.200E+00
     1200.0  9.500E+00
     1210.0  7.200E+00
     1220.0  1.070E+01
     1230.0  9.100E+00
     1240.0  1.170E+01
     1250.0  1.010E+01
     1260.0  1.200E+01
     1270.0  1.240E+01
     1280.0  9.800E+00
     1290.0  1.420E+01
     1300.0  1.100E+01
     1310.0  1.660E+01
     1320.0  1.350E+01
     1330.0  1.500E+01
     1340.0  1.240E+01
     1350.0  1.360E+01
     1360.0  1.460E+01
     1370.0  1.540E+01
     1380.0  1.670E+01
     1390.0  1.620E+01
     1400.0  1.390E+01
     1410.0  1.530E+01
     1420.0  1.590E+01
     1430.0  1.990E+01
     1440.0  1.710E+01
     1450.0  2.230E+01
     1460.0  1.810E+01
     1470.0  2.050E+01
     1480.0  1.880E+01
     1490.0  2.090E+01
     1500.0  2.240E+01
     1510.0  2.020E+01
     1520.0  2.410E+01
     1530.0  2.140E+01
     1540.0  2.530E+01
     1550.0  2.370E+01
     1560.0  2.490E+01
     1570.0  2.660E+01
     1580.0  2.620E+01
     1590.0  2.750E+01
     1600.0  2.810E+01
     1610.0  3.100E+01
     1620.0  3.000E+01
     1630.0  2.800E+01
     1640.0  3.390E+01
     1650.0  3.080E+01
     1660.0  3.920E+01
     1670.0  3.360E+01
     1680.0  3.940E+01
     1690.0  3.550E+01
     1700.0  3.760E+01
     1710.0  4.340E+01
     1720.0  3.900E+01
     1730.0  5.100E+01
     1740.0  4.050E+01
     1750.0  4.720E+01
     1760.0  4.020E+01
     1770.0  4.700E+01
     1780.0  4.980E+01
     1790.0  4.890E+01
     1800.0  5.450E+01
     1810.0  4.710E+01
     1820.0  4.890E+01
     1830.0  4.960E+01
     1840.0  5.660E+01
     1850.0  5.970E+01
     1860.0  5.460E+01
     1870.0  6.510E+01
     1880.0  5.390E+01
     1890.0  6.730E+01
     1900.0  5.660E+01
     1910.0  7.040E+01
     1920.0  6.520E+01
     1930.0  6.780E+01
     1940.0  7.200E+01
     1950.0  6.650E+01
     1960.0  8.070E+01
     1970.0  6.740E+01
     1980.0  8.280E+01
     1990.0  7.550E+01
     2000.0  8.420E+01
     2010.0  8.270E+01
     2020.0  8.610E+01
     2030.0  9.300E+01
     2040.0  8.480E+01
     2050.0  9.230E+01
     2060.0  9.310E+01
     2070.0  1.014E+02
     2080.0  1.056E+02
     2090.0  1.013E+02
     2100.0  1.128E+02
     2110.0  9.770E+01
     2120.0  1.222E+02
     2130.0  1.107E+02
     2140.0  1.301E+02
     2150.0  1.239E+02
     2160.0  1.202E+02
     2170.0  1.265E+02
     2180.0  1.210E+02
     2190.0  1.418E+02
     2200.0  1.331E+02
     2210.0  1.473E+02
     2220.0  1.399E+02
     2230.0  1.393E+02
     2240.0  1.426E+02
     2250.0  1.489E+02
     2260.0  1.617E+02
     2270.0  1.560E+02
     2280.0  1.609E+02
     2290.0  1.637E+02
     2300.0  1.629E+02
     2310.0  1.743E+02
     2320.0  1.700E+02
     2330.0  1.911E+02
     2340.0  1.767E+02
     2350.0  1.961E+02
     2360.0  1.867E+02
     2370.0  2.001E+02
     2380.0  2.036E+02
     2390.0  1.988E+02
     2400.0  2.156E+02
     2410.0  2.111E+02
     2420.0  2.253E+02
     2430.0  2.236E+02
     2440.0  2.357E+02
     2450.0  2.383E+02
     2460.0  2.323E+02
     2470.0  2.518E+02
     2480.0  2.541E+02
     2490.0  2.716E+02
        0.0  3.000E-01
      341.4  2.000E-01
      682.7  1.000E+00
     1024.1  4.400E+00
     1365.5  1.460E+01
     1706.8  3.760E+01
     2048.2  8.480E+01
     2389.6  2.036E+02
     2730.9  4.344E+02
     3072.3  8.856E+02
     3413.7  1.686E+03
     3755.0  3.164E+03
     4096.4  5.811E+03
     4437.8  1.017E+04
     4779.1  1.758E+04
     5120.5  2.995E+04
     5461.8  4.999E+04
     5803.2  8.102E+04
     6144.6  1.284E+05
     6485.9  2.030E+05
     6827.3  3.156E+05
     7168.7  4.810E+05
     7510.0  7.375E+05
     7851.4  1.101E+06
     8192.8  1.631E+06
     8534.1  2.387E+06
     8875.5  3.459E+06
     9216.9  4.975E+06
     9558.2  7.090E+06
     9899.6  1.002E+07
    10241.0  1.420E+07
    10582.3  1.978E+07
    10923.7  2.736E+07
    11265.1  3.758E+07
    11606.4  5.130E+07
    11947.8  6.962E+07
    12289.2  9.392E+07
    12630.5  1.271E+08
    12971.9  1.696E+08
    13313.3  2.251E+08
    13654.6  2.973E+08
    13996.0  3.908E+08
    14337.3  5.115E+08
    14678.7  6.664E+08
    15020.1  8.711E+08
    15361.4  1.125E+09
    15702.8  1.448E+09
    16044.2  1.856E+09
    16385.5  2.370E+09
    16726.9  3.016E+09
    17068.3  3.824E+09
    17409.6  4.832E+09
    17751.0  6.127E+09
    18092.4  7.692E+09
    18433.7  9.627E+09
    18775.1  1.201E+10
    19116.5  1.494E+10
    19457.8  1.854E+10
    19799.2  2.294E+10
    20140.6  2.847E+10
    20481.9  3.503E+10
    20823.3  4.300E+10
    21164.7  5.264E+10
    21506.0  6.430E+10
    21847.4  7.834E+10
    22188.8  9.523E+10
    22530.1  1.162E+11
    22871.5  1.406E+11
    23212.9  1.697E+11
    23554.2  2.046E+11
    23895.6  2.460E+11
    24236.9  2.952E+11
    24578.3  3.536E+11
    24919.7  4.228E+11
    25261.0  5.071E+11
    25602.4  6.040E+11
    25943.8  7.181E+11
    26285.1  8.522E+11
    26626.5  1.010E+12
    26967.9  1.194E+12
    27309.2  1.410E+12
    27650.6  1.671E+12
    27992.0  1.966E+12
    28333.3  2.311E+12
    28674.7  2.711E+12
    29016.1  3.177E+12
    29357.4  3.717E+12
    29698.8  4.342E+12
    30040.2  5.088E+12
    30381.5  5.927E+12
    30722.9  6.896E+12
    31064.3  8.012E+12
    31405.6  9.296E+12
    31747.0  1.077E+13
    32088.4  1.247E+13
    32429.7  1.441E+13
    32771.1  1.671E+13
    33112.4  1.927E+13
    33453.8  2.219E+13
    33795.2  2.552E+13
    34136.5  2.933E+13
    34477.9  3.366E+13
    34819.3  3.860E+13
    35160.6  4.438E+13
    35502.0  5.077E+13
    35843.4  5.802E+13
    36184.7  6.624E+13
    36526.1  7.555E+13
    36867.5  8.608E+13
    37208.8  9.798E+13
    37550.2  1.118E+14
    37891.6  1.270E+14
    38232.9  1.442E+14
    38574.3  1.635E+14
    38915.7  1.852E+14
    39257.0  2.096E+14
    39598.4  2.370E+14
    39939.8  2.678E+14
    40281.1  3.034E+14
    40622.5  3.422E+14
    40963.9  3.857E+14
    41305.2  4.342E+14
    41646.6  4.886E+14
    41988.0  5.492E+14
    42329.3  6.170E+14
    42670.7  6.949E+14
    43012.0  7.793E+14
    43353.4  8.734E+14
    43694.8  9.780E+14
    44036.1  1.094E+15
    44377.5  1.224E+15
    44718.9  1.368E+15
    45060.2  1.532E+15
    45401.6  1.709E+15
    45743.0  1.906E+15
    46084.3  2.124E+15
    46425.7  2.365E+15
    46767.1  2.632E+15
    47108.4  2.926E+15
    47449.8  3.252E+15
    47791.2  3.623E+15
    48132.5  4.021E+15
    48473.9  4.460E+15
    48815.3  4.944E+15
    49156.6  5.477E+15
    49498.0  6.064E+15
    49839.4  6.710E+15
    50180.7  7.443E+15
    50522.1  8.225E+15
    50863.5  9.086E+15
    51204.8  1.003E+16
    51546.2  1.107E+16
    51887.6  1.220E+16
    52228.9  1.345E+16
    52570.3  1.485E+16
    52911.6  1.635E+16
    53253.0  1.799E+16
    53594.4  1.979E+16
    53935.7  2.175E+16
    54277.1  2.389E+16
    54618.5  2.624E+16
    54959.8  2.879E+16
    55301.2  3.167E+16
    55642.6  3.472E+16
    55983.9  3.805E+16
    56325.3  4.168E+16
    56666.7  4.563E+16
    57008.0  4.993E+16
    57349.4  5.461E+16
    57690.8  5.986E+16
    58032.1  6.541E+16
    58373.5  7.145E+16
    58714.9  7.801E+16
    59056.2  8.513E+16
    59397.6  9.286E+16
    59739.0  1.012E+17
    60080.3  1.106E+17
    60421.7  1.205E+17
    60763.1  1.312E+17
    61104.4  1.428E+17
    61445.8  1.554E+17
    61787.1  1.690E+17
    62128.5  1.838E+17
    62469.9  1.997E+17
    62811.2  2.175E+17
    63152.6  2.361E+17
    63494.0  2.563E+17
    63835.3  2.781E+17
    64176.7  3.016E+17
    64518.1  3.270E+17
    64859.4  3.544E+17
    65200.8  3.848E+17
    65542.2  4.167E+17
    65883.5  4.512E+17
    66224.9  4.882E+17
    66566.3  5.282E+17
    66907.6  5.712E+17
    67249.0  6.174E+17
    67590.4  6.688E+17
    67931.7  7.224E+17
    68273.1  7.802E+17
    68614.5  8.422E+17
    68955.8  9.089E+17
    69297.2  9.805E+17
    69638.6  1.057E+18
    69979.9  1.140E+18
    70321.3  1.231E+18
    70662.7  1.327E+18
    71004.0  1.429E+18
    71345.4  1.539E+18
    71686.7  1.656E+18
    72028.1  1.782E+18
    72369.5  1.917E+18
    72710.8  2.066E+18
    73052.2  2.221E+18
    73393.6  2.387E+18
    73734.9  2.564E+18
    74076.3  2.754E+18
    74417.7  2.958E+18
    74759.0  3.175E+18
    75100.4  3.414E+18
    75441.8  3.663E+18
    75783.1  3.929E+18
    76124.5  4.212E+18
    76465.9  4.515E+18
    76807.2  4.839E+18
    77148.6  5.184E+18
    77490.0  5.552E+18
    77831.3  5.957E+18
    78172.7  6.377E+18
    78514.1  6.825E+18
    78855.4  7.302E+18
    79196.8  7.810E+18
    79538.2  8.352E+18
    79879.5  8.929E+18
    80220.9  9.562E+18
    80562.2  1.022E+19
    80903.6  1.091E+19
    81245.0  1.166E+19
    81586.3  1.245E+19
    81927.7  1.329E+19
    82269.1  1.418E+19
    82610.4  1.516E+19
    82951.8  1.617E+19
    83293.2  1.724E+19
    83634.5  1.838E+19
    83975.9  1.959E+19
    84317.3  2.088E+19
    84658.6  2.225E+19
    85000.0  2.370E+19


COLLISION PARAMETERS FOR  1 WELLS
 UNSPECIFIED ET TREATMENT: USE BARKER'S APPROACH
 [J.R. Barker, Int. J. Chem. Kinetics, 41, 748-763 (2009)]

Lennard-Jones Parameters & Pdown Models    [rate constants k(LJ) and k(QM) units: cc/sec]

Mol   Sig(Ang)      Eps/k MolWt(amu)     NetSig   NetEps/k    RedMass     k(LJ)    k(QM)     Used
  0      5.200    212.000    146.000
  1      5.200    270.000    151.230      5.200    239.249     74.284  4.933E-10  8.802E-09  4.933E-10



Well number:  1     Name: Ge2H6_____
Reference energy for collision frequency:  2490.0 cm-1
Collision parameters:
  3.500E+02  0.000E+00  0.000E+00  0.000E+00  0.000E+00  0.000E+00  0.000E+00  0.000E+00
 Biexponential Model                                                                                
 Alpha1= [C(1) + E*C(2) + E*E*C(3)]*(T/300)**C(8)                                                   
 Alpha2= [C(5) + E*C(6) + E*E*C(7)]*(T/300)**C(8)                                                   
 Pdown = (1-C(4))*EXP(-(E-EE)/Alpha1) + C(4)*EXP(-(E-EE)/Alpha2)                                    
                                                                                                    



     Energy   Norm(01) UpProb(01)
        0.0  1.910E+02  1.000E+00
       10.0  0.000E+00  0.000E+00
       20.0  1.009E+03  9.904E-01
       30.0  0.000E+00  0.000E+00
       40.0  1.087E+03  9.826E-01
       50.0  0.000E+00  0.000E+00
       60.0  1.169E+03  9.764E-01
       70.0  0.000E+00  0.000E+00
       80.0  0.000E+00  0.000E+00
       90.0  0.000E+00  0.000E+00
      100.0  1.353E+03  9.748E-01
      110.0  0.000E+00  0.000E+00
      120.0  0.000E+00  0.000E+00
      130.0  0.000E+00  0.000E+00
      140.0  6.473E+02  9.385E-01
      150.0  0.000E+00  0.000E+00
      160.0  1.668E+03  9.716E-01
      170.0  0.000E+00  0.000E+00
      180.0  1.793E+03  9.696E-01
      190.0  0.000E+00  0.000E+00
      200.0  9.918E+02  9.384E-01
      210.0  0.000E+00  0.000E+00
      220.0  0.000E+00  0.000E+00
      230.0  1.445E+03  9.545E-01
      240.0  2.210E+03  9.666E-01
      250.0  1.183E+03  9.311E-01
      260.0  0.000E+00  0.000E+00
      270.0  2.450E+03  9.646E-01
      280.0  2.539E+03  9.629E-01
      290.0  1.110E+03  9.087E-01
      300.0  0.000E+00  0.000E+00
      310.0  2.809E+03  9.625E-01
      320.0  2.911E+03  9.614E-01
      330.0  1.565E+03  9.240E-01
      340.0  3.115E+03  9.597E-01
      350.0  3.227E+03  9.592E-01
      360.0  0.000E+00  0.000E+00
      370.0  1.463E+03  9.083E-01
      380.0  0.000E+00  0.000E+00
      390.0  1.323E+03  8.968E-01
      400.0  3.818E+03  9.627E-01
      410.0  1.097E+03  8.647E-01
      420.0  1.456E+03  8.942E-01
      430.0  7.764E+02  7.945E-01
      440.0  2.226E+03  9.259E-01
      450.0  1.589E+03  8.929E-01
      460.0  1.149E+03  8.476E-01
      470.0  1.308E+03  8.623E-01
      480.0  1.113E+03  8.339E-01
      490.0  2.582E+03  9.266E-01
      500.0  5.150E+03  9.623E-01
      510.0  1.908E+03  8.960E-01
      520.0  1.378E+03  8.529E-01
      530.0  5.675E+03  9.635E-01
      540.0  2.098E+03  8.994E-01
      550.0  1.187E+03  8.191E-01
      560.0  1.075E+03  7.966E-01
      570.0  1.456E+03  8.473E-01
      580.0  1.639E+03  8.621E-01
      590.0  3.516E+03  9.347E-01
      600.0  1.468E+03  8.413E-01
      610.0  1.636E+03  8.557E-01
      620.0  1.040E+03  7.698E-01
      630.0  3.956E+03  9.387E-01
      640.0  1.781E+03  8.622E-01
      650.0  1.834E+03  8.645E-01
      660.0  1.028E+03  7.556E-01
      670.0  1.933E+03  8.686E-01
      680.0  1.991E+03  8.710E-01
      690.0  1.452E+03  8.213E-01
      700.0  1.285E+03  7.962E-01
      710.0  1.317E+03  7.992E-01
      720.0  1.769E+03  8.492E-01
      730.0  2.286E+03  8.823E-01
      740.0  1.573E+03  8.274E-01
      750.0  1.403E+03  8.049E-01
      760.0  1.750E+03  8.424E-01
      770.0  1.800E+03  8.456E-01
      780.0  1.457E+03  8.078E-01
      790.0  1.799E+03  8.432E-01
      800.0  1.535E+03  8.151E-01
      810.0  1.116E+03  7.440E-01
      820.0  2.055E+03  8.601E-01
      830.0  9.884E+02  7.073E-01
      840.0  1.411E+03  7.938E-01
      850.0  9.458E+02  6.906E-01
      860.0  1.700E+03  8.269E-01
      870.0  1.140E+03  7.404E-01
      880.0  1.338E+03  7.778E-01
      890.0  1.081E+03  7.236E-01
      900.0  1.031E+03  7.088E-01
      910.0  1.467E+03  7.943E-01
      920.0  1.357E+03  7.767E-01
      930.0  1.423E+03  7.862E-01
      940.0  1.390E+03  7.801E-01
      950.0  1.332E+03  7.696E-01
      960.0  1.424E+03  7.836E-01
      970.0  1.025E+03  6.984E-01
      980.0  1.340E+03  7.683E-01
      990.0  1.253E+03  7.513E-01
     1000.0  1.558E+03  7.993E-01
     1010.0  1.193E+03  7.370E-01
     1020.0  1.362E+03  7.690E-01
     1030.0  1.133E+03  7.212E-01
     1040.0  1.042E+03  6.960E-01
     1050.0  1.787E+03  8.222E-01
     1060.0  1.122E+03  7.160E-01
     1070.0  1.494E+03  7.862E-01
     1080.0  1.016E+03  6.848E-01
     1090.0  1.618E+03  8.015E-01
     1100.0  1.141E+03  7.179E-01
     1110.0  1.357E+03  7.622E-01
     1120.0  1.110E+03  7.085E-01
     1130.0  1.187E+03  7.269E-01
     1140.0  1.372E+03  7.632E-01
     1150.0  1.213E+03  7.316E-01
     1160.0  1.264E+03  7.418E-01
     1170.0  1.265E+03  7.414E-01
     1180.0  1.254E+03  7.387E-01
     1190.0  1.222E+03  7.313E-01
     1200.0  1.121E+03  7.065E-01
     1210.0  1.403E+03  7.652E-01
     1220.0  1.072E+03  6.921E-01
     1230.0  1.226E+03  7.303E-01
     1240.0  1.046E+03  6.833E-01
     1250.0  1.181E+03  7.190E-01
     1260.0  1.065E+03  6.880E-01
     1270.0  1.059E+03  6.859E-01
     1280.0  1.277E+03  7.390E-01
     1290.0  1.002E+03  6.669E-01
     1300.0  1.218E+03  7.257E-01
     1310.0  9.349E+02  6.421E-01
     1320.0  1.091E+03  6.928E-01
     1330.0  1.032E+03  6.750E-01
     1340.0  1.200E+03  7.201E-01
     1350.0  1.145E+03  7.064E-01
     1360.0  1.110E+03  6.966E-01
     1370.0  1.088E+03  6.904E-01
     1380.0  1.048E+03  6.779E-01
     1390.0  1.088E+03  6.895E-01
     1400.0  1.235E+03  7.263E-01
     1410.0  1.176E+03  7.121E-01
     1420.0  1.166E+03  7.094E-01
     1430.0  1.016E+03  6.664E-01
     1440.0  1.147E+03  7.041E-01
     1450.0  9.742E+02  6.513E-01
     1460.0  1.141E+03  7.020E-01
     1470.0  1.065E+03  6.805E-01
     1480.0  1.151E+03  7.042E-01
     1490.0  1.089E+03  6.869E-01
     1500.0  1.056E+03  6.770E-01
     1510.0  1.154E+03  7.043E-01
     1520.0  1.040E+03  6.716E-01
     1530.0  1.148E+03  7.023E-01
     1540.0  1.041E+03  6.715E-01
     1550.0  1.107E+03  6.909E-01
     1560.0  1.089E+03  6.855E-01
     1570.0  1.059E+03  6.763E-01
     1580.0  1.088E+03  6.848E-01
     1590.0  1.071E+03  6.795E-01
     1600.0  1.073E+03  6.800E-01
     1610.0  1.021E+03  6.635E-01
     1620.0  1.060E+03  6.759E-01
     1630.0  1.131E+03  6.960E-01
     1640.0  1.010E+03  6.595E-01
     1650.0  1.095E+03  6.858E-01
     1660.0  9.484E+02  6.369E-01
     1670.0  1.066E+03  6.767E-01
     1680.0  9.741E+02  6.462E-01
     1690.0  1.060E+03  6.746E-01
     1700.0  1.036E+03  6.671E-01
     1710.0  9.579E+02  6.397E-01
     1720.0  1.043E+03  6.690E-01
     1730.0  8.907E+02  6.122E-01
     1740.0  1.047E+03  6.701E-01
     1750.0  9.618E+02  6.406E-01
     1760.0  1.086E+03  6.817E-01
     1770.0  9.945E+02  6.522E-01
     1780.0  9.720E+02  6.440E-01
     1790.0  9.982E+02  6.533E-01
     1800.0  9.444E+02  6.334E-01
     1810.0  1.054E+03  6.715E-01
     1820.0  1.045E+03  6.685E-01
     1830.0  1.052E+03  6.706E-01
     1840.0  9.792E+02  6.460E-01
     1850.0  9.599E+02  6.388E-01
     1860.0  1.033E+03  6.641E-01
     1870.0  9.351E+02  6.290E-01
     1880.0  1.074E+03  6.769E-01
     1890.0  9.427E+02  6.318E-01
     1900.0  1.072E+03  6.761E-01
     1910.0  9.433E+02  6.319E-01
     1920.0  1.005E+03  6.545E-01
     1930.0  9.948E+02  6.508E-01
     1940.0  9.709E+02  6.421E-01
     1950.0  1.038E+03  6.652E-01
     1960.0  9.296E+02  6.260E-01
     1970.0  1.060E+03  6.721E-01
     1980.0  9.412E+02  6.305E-01
     1990.0  1.013E+03  6.567E-01
     2000.0  9.581E+02  6.369E-01
     2010.0  9.832E+02  6.461E-01
     2020.0  9.719E+02  6.419E-01
     2030.0  9.383E+02  6.291E-01
     2040.0  1.010E+03  6.553E-01
     2050.0  9.701E+02  6.411E-01
     2060.0  9.786E+02  6.442E-01
     2070.0  9.398E+02  6.294E-01
     2080.0  9.285E+02  6.248E-01
     2090.0  9.662E+02  6.395E-01
     2100.0  9.152E+02  6.193E-01
     2110.0  1.017E+03  6.575E-01
     2120.0  8.949E+02  6.106E-01
     2130.0  9.644E+02  6.386E-01
     2140.0  8.836E+02  6.055E-01
     2150.0  9.218E+02  6.218E-01
     2160.0  9.521E+02  6.338E-01
     2170.0  9.345E+02  6.269E-01
     2180.0  9.746E+02  6.422E-01
     2190.0  8.941E+02  6.099E-01
     2200.0  9.419E+02  6.297E-01
     2210.0  8.959E+02  6.106E-01
     2220.0  9.368E+02  6.276E-01
     2230.0  9.521E+02  6.335E-01
     2240.0  9.510E+02  6.331E-01
     2250.0  9.381E+02  6.280E-01
     2260.0  9.028E+02  6.134E-01
     2270.0  9.350E+02  6.267E-01
     2280.0  9.292E+02  6.244E-01
     2290.0  9.314E+02  6.252E-01
     2300.0  9.468E+02  6.313E-01
     2310.0  9.196E+02  6.204E-01
     2320.0  9.465E+02  6.311E-01
     2330.0  8.916E+02  6.084E-01
     2340.0  9.481E+02  6.317E-01
     2350.0  9.002E+02  6.120E-01
     2360.0  9.400E+02  6.284E-01
     2370.0  9.120E+02  6.170E-01
     2380.0  9.138E+02  6.178E-01
     2390.0  9.396E+02  6.282E-01
     2400.0  9.050E+02  6.140E-01
     2410.0  9.287E+02  6.238E-01
     2420.0  9.034E+02  6.133E-01
     2430.0  9.191E+02  6.199E-01
     2440.0  9.010E+02  6.122E-01
     2450.0  9.061E+02  6.144E-01
     2460.0  9.324E+02  6.252E-01
     2470.0  8.984E+02  6.110E-01
     2480.0  9.044E+02  6.136E-01
     2490.0  8.790E+02  6.024E-01
        0.0  1.910E+02  1.000E+00
      341.4  3.115E+03  9.597E-01
      682.7  1.991E+03  8.710E-01
     1024.1  1.362E+03  7.690E-01
     1365.5  1.110E+03  6.966E-01
     1706.8  1.036E+03  6.671E-01
     2048.2  1.010E+03  6.553E-01
     2389.6  9.138E+02  6.178E-01
     2730.9  8.889E+02  6.032E-01
     3072.3  8.538E+02  5.890E-01
     3413.7  8.391E+02  5.825E-01
     3755.0  8.214E+02  5.739E-01
     4096.4  8.016E+02  5.634E-01
     4437.8  7.930E+02  5.588E-01
     4779.1  7.833E+02  5.533E-01
     5120.5  7.718E+02  5.467E-01
     5461.8  7.601E+02  5.396E-01
     5803.2  7.525E+02  5.349E-01
     6144.6  7.488E+02  5.326E-01
     6485.9  7.418E+02  5.282E-01
     6827.3  7.360E+02  5.244E-01
     7168.7  7.340E+02  5.232E-01
     7510.0  7.259E+02  5.178E-01
     7851.4  7.222E+02  5.154E-01
     8192.8  7.179E+02  5.125E-01
     8534.1  7.144E+02  5.101E-01
     8875.5  7.114E+02  5.080E-01
     9216.9  7.084E+02  5.059E-01
     9558.2  7.060E+02  5.042E-01
     9899.6  7.047E+02  5.034E-01
    10241.0  6.999E+02  5.000E-01
    10582.3  6.975E+02  4.982E-01
    10923.7  6.952E+02  4.966E-01
    11265.1  6.932E+02  4.951E-01
    11606.4  6.913E+02  4.937E-01
    11947.8  6.898E+02  4.926E-01
    12289.2  6.891E+02  4.921E-01
    12630.5  6.856E+02  4.895E-01
    12971.9  6.839E+02  4.882E-01
    13313.3  6.824E+02  4.871E-01
    13654.6  6.809E+02  4.860E-01
    13996.0  6.797E+02  4.850E-01
    14337.3  6.786E+02  4.842E-01
    14678.7  6.783E+02  4.840E-01
    15020.1  6.754E+02  4.818E-01
    15361.4  6.743E+02  4.810E-01
    15702.8  6.731E+02  4.800E-01
    16044.2  6.720E+02  4.792E-01
    16385.5  6.710E+02  4.784E-01
    16726.9  6.700E+02  4.776E-01
    17068.3  6.693E+02  4.771E-01
    17409.6  6.692E+02  4.770E-01
    17751.0  6.670E+02  4.753E-01
    18092.4  6.661E+02  4.745E-01
    18433.7  6.652E+02  4.738E-01
    18775.1  6.644E+02  4.732E-01
    19116.5  6.638E+02  4.727E-01
    19457.8  6.632E+02  4.723E-01
    19799.2  6.631E+02  4.722E-01
    20140.6  6.613E+02  4.707E-01
    20481.9  6.606E+02  4.702E-01
    20823.3  6.599E+02  4.696E-01
    21164.7  6.593E+02  4.691E-01
    21506.0  6.587E+02  4.686E-01
    21847.4  6.583E+02  4.683E-01
    22188.8  6.584E+02  4.684E-01
    22530.1  6.566E+02  4.670E-01
    22871.5  6.560E+02  4.665E-01
    23212.9  6.556E+02  4.662E-01
    23554.2  6.549E+02  4.656E-01
    23895.6  6.545E+02  4.652E-01
    24236.9  6.540E+02  4.649E-01
    24578.3  6.537E+02  4.646E-01
    24919.7  6.538E+02  4.647E-01
    25261.0  6.524E+02  4.635E-01
    25602.4  6.519E+02  4.631E-01
    25943.8  6.515E+02  4.628E-01
    26285.1  6.511E+02  4.624E-01
    26626.5  6.506E+02  4.620E-01
    26967.9  6.505E+02  4.619E-01
    27309.2  6.506E+02  4.621E-01
    27650.6  6.492E+02  4.609E-01
    27992.0  6.489E+02  4.607E-01
    28333.3  6.485E+02  4.603E-01
    28674.7  6.482E+02  4.600E-01
    29016.1  6.478E+02  4.597E-01
    29357.4  6.476E+02  4.596E-01
    29698.8  6.478E+02  4.597E-01
    30040.2  6.466E+02  4.587E-01
    30381.5  6.463E+02  4.585E-01
    30722.9  6.460E+02  4.582E-01
    31064.3  6.456E+02  4.579E-01
    31405.6  6.453E+02  4.576E-01
    31747.0  6.451E+02  4.575E-01
    32088.4  6.449E+02  4.573E-01
    32429.7  6.451E+02  4.575E-01
    32771.1  6.441E+02  4.566E-01
    33112.4  6.437E+02  4.563E-01
    33453.8  6.434E+02  4.560E-01
    33795.2  6.432E+02  4.559E-01
    34136.5  6.430E+02  4.556E-01
    34477.9  6.429E+02  4.556E-01
    34819.3  6.430E+02  4.557E-01
    35160.6  6.421E+02  4.549E-01
    35502.0  6.418E+02  4.547E-01
    35843.4  6.416E+02  4.545E-01
    36184.7  6.413E+02  4.543E-01
    36526.1  6.411E+02  4.541E-01
    36867.5  6.410E+02  4.540E-01
    37208.8  6.412E+02  4.541E-01
    37550.2  6.404E+02  4.534E-01
    37891.6  6.402E+02  4.533E-01
    38232.9  6.399E+02  4.530E-01
    38574.3  6.397E+02  4.528E-01
    38915.7  6.395E+02  4.527E-01
    39257.0  6.393E+02  4.525E-01
    39598.4  6.392E+02  4.525E-01
    39939.8  6.394E+02  4.526E-01
    40281.1  6.386E+02  4.519E-01
    40622.5  6.384E+02  4.518E-01
    40963.9  6.382E+02  4.516E-01
    41305.2  6.380E+02  4.515E-01
    41646.6  6.378E+02  4.513E-01
    41988.0  6.378E+02  4.513E-01
    42329.3  6.380E+02  4.514E-01
    42670.7  6.372E+02  4.508E-01
    43012.0  6.371E+02  4.506E-01
    43353.4  6.369E+02  4.504E-01
    43694.8  6.367E+02  4.503E-01
    44036.1  6.367E+02  4.503E-01
    44377.5  6.365E+02  4.502E-01
    44718.9  6.367E+02  4.503E-01
    45060.2  6.360E+02  4.497E-01
    45401.6  6.359E+02  4.496E-01
    45743.0  6.357E+02  4.494E-01
    46084.3  6.355E+02  4.493E-01
    46425.7  6.354E+02  4.492E-01
    46767.1  6.352E+02  4.490E-01
    47108.4  6.352E+02  4.490E-01
    47449.8  6.354E+02  4.492E-01
    47791.2  6.347E+02  4.486E-01
    48132.5  6.346E+02  4.485E-01
    48473.9  6.345E+02  4.484E-01
    48815.3  6.343E+02  4.482E-01
    49156.6  6.342E+02  4.481E-01
    49498.0  6.342E+02  4.481E-01
    49839.4  6.344E+02  4.483E-01
    50180.7  6.337E+02  4.477E-01
    50522.1  6.336E+02  4.476E-01
    50863.5  6.335E+02  4.475E-01
    51204.8  6.334E+02  4.474E-01
    51546.2  6.332E+02  4.472E-01
    51887.6  6.333E+02  4.473E-01
    52228.9  6.334E+02  4.474E-01
    52570.3  6.329E+02  4.470E-01
    52911.6  6.327E+02  4.468E-01
    53253.0  6.326E+02  4.468E-01
    53594.4  6.325E+02  4.466E-01
    53935.7  6.324E+02  4.465E-01
    54277.1  6.323E+02  4.465E-01
    54618.5  6.322E+02  4.464E-01
    54959.8  6.325E+02  4.466E-01
    55301.2  6.319E+02  4.461E-01
    55642.6  6.318E+02  4.460E-01
    55983.9  6.317E+02  4.459E-01
    56325.3  6.316E+02  4.458E-01
    56666.7  6.315E+02  4.457E-01
    57008.0  6.315E+02  4.457E-01
    57349.4  6.317E+02  4.459E-01
    57690.8  6.311E+02  4.454E-01
    58032.1  6.310E+02  4.454E-01
    58373.5  6.309E+02  4.453E-01
    58714.9  6.308E+02  4.452E-01
    59056.2  6.307E+02  4.451E-01
    59397.6  6.307E+02  4.450E-01
    59739.0  6.310E+02  4.453E-01
    60080.3  6.304E+02  4.448E-01
    60421.7  6.303E+02  4.447E-01
    60763.1  6.302E+02  4.446E-01
    61104.4  6.302E+02  4.446E-01
    61445.8  6.301E+02  4.445E-01
    61787.1  6.300E+02  4.445E-01
    62128.5  6.299E+02  4.444E-01
    62469.9  6.302E+02  4.446E-01
    62811.2  6.296E+02  4.441E-01
    63152.6  6.296E+02  4.441E-01
    63494.0  6.295E+02  4.440E-01
    63835.3  6.294E+02  4.439E-01
    64176.7  6.294E+02  4.439E-01
    64518.1  6.293E+02  4.439E-01
    64859.4  6.295E+02  4.440E-01
    65200.8  6.291E+02  4.436E-01
    65542.2  6.290E+02  4.436E-01
    65883.5  6.289E+02  4.435E-01
    66224.9  6.288E+02  4.434E-01
    66566.3  6.288E+02  4.434E-01
    66907.6  6.288E+02  4.433E-01
    67249.0  6.290E+02  4.435E-01
    67590.4  6.285E+02  4.431E-01
    67931.7  6.284E+02  4.431E-01
    68273.1  6.283E+02  4.430E-01
    68614.5  6.283E+02  4.429E-01
    68955.8  6.282E+02  4.428E-01
    69297.2  6.281E+02  4.428E-01
    69638.6  6.282E+02  4.429E-01
    69979.9  6.283E+02  4.429E-01
    70321.3  6.280E+02  4.427E-01
    70662.7  6.278E+02  4.425E-01
    71004.0  6.278E+02  4.425E-01
    71345.4  6.276E+02  4.424E-01
    71686.7  6.277E+02  4.424E-01
    72028.1  6.277E+02  4.424E-01
    72369.5  6.278E+02  4.425E-01
    72710.8  6.274E+02  4.422E-01
    73052.2  6.273E+02  4.421E-01
    73393.6  6.272E+02  4.420E-01
    73734.9  6.272E+02  4.420E-01
    74076.3  6.272E+02  4.420E-01
    74417.7  6.272E+02  4.419E-01
    74759.0  6.273E+02  4.421E-01
    75100.4  6.270E+02  4.418E-01
    75441.8  6.269E+02  4.417E-01
    75783.1  6.268E+02  4.416E-01
    76124.5  6.268E+02  4.416E-01
    76465.9  6.267E+02  4.415E-01
    76807.2  6.267E+02  4.415E-01
    77148.6  6.267E+02  4.415E-01
    77490.0  6.268E+02  4.416E-01
    77831.3  6.265E+02  4.413E-01
    78172.7  6.264E+02  4.413E-01
    78514.1  6.263E+02  4.412E-01
    78855.4  6.263E+02  4.411E-01
    79196.8  6.263E+02  4.411E-01
    79538.2  6.263E+02  4.411E-01
    79879.5  6.264E+02  4.413E-01
    80220.9  6.261E+02  4.410E-01
    80562.2  6.259E+02  4.408E-01
    80903.6  6.260E+02  4.409E-01
    81245.0  6.259E+02  4.408E-01
    81586.3  6.258E+02  4.408E-01
    81927.7  6.258E+02  4.408E-01
    82269.1  6.260E+02  4.409E-01
    82610.4  6.256E+02  4.406E-01
    82951.8  6.256E+02  4.405E-01
    83293.2  6.256E+02  4.405E-01
    83634.5  6.255E+02  4.405E-01
    83975.9  6.255E+02  4.404E-01
    84317.3  6.254E+02  4.404E-01
    84658.6  6.254E+02  4.403E-01
    85000.0  6.254E+02  4.403E-01

       1 REACTION RATE CONSTANTS: Canonical k(infinity)
               01-->02
    TS_Name: Ge2H6TS___
  2D-moment:      569.9
   ext_symm:          3
Qel_partfxn:       1.00
   opt_isom:          1
Rx_Path*Qel:        6.0
 delH(cm-1):    26476.5
   delH(kJ):      316.7
 delH(kcal):       75.7
   Eo(cm-1):    12940.9
     Eo(kJ):     154.81
   Eo(kcal):      37.00
     k(inf):   9.17E-21
     A(inf):    6.6E-19
 E(inf)kcal:       12.7
   E(inf)kJ:       53.2
 koSC(cc/s):   4.52E-10
Centr.Corr.:         -2
Eocent/cm-1:        0.0
     Source:          1
TUN   vimag:        0.0
 WARNING!!!:          0
-----------
SOURCE: 0=> ILT method; 1=> sums of states file; 2=> k(E) file; -2=> for reverse rxn; 3=> CRP file.
CENTR.CORR.: 0=> none; 1=> 1-D adiabatic rotor; 2=> 2-D adiabatic rotor; -2=> legacy (not recommended).
WARNING: number of energy grains where Reactant Well has states, but Product Well has none to match [set k(E) = 0].

       1 REACTION RATE CONSTANTS: Canonical k(infinity)
       (with centrifugal corrections) vs. active energy

  Eocent:        0.0
 E-Eocent     01...02
        0.0  1.000E-20
       10.0  1.000E-20
       20.0  1.000E-20
       30.0  1.000E-20
       40.0  1.000E-20
       50.0  1.000E-20
       60.0  1.000E-20
       70.0  1.000E-20
       80.0  1.000E-20
       90.0  1.000E-20
      100.0  1.000E-20
      110.0  1.000E-20
      120.0  1.000E-20
      130.0  1.000E-20
      140.0  1.000E-20
      150.0  1.000E-20
      160.0  1.000E-20
      170.0  1.000E-20
      180.0  1.000E-20
      190.0  1.000E-20
      200.0  1.000E-20
      210.0  1.000E-20
      220.0  1.000E-20
      230.0  1.000E-20
      240.0  1.000E-20
      250.0  1.000E-20
      260.0  1.000E-20
      270.0  1.000E-20
      280.0  1.000E-20
      290.0  1.000E-20
      300.0  1.000E-20
      310.0  1.000E-20
      320.0  1.000E-20
      330.0  1.000E-20
      340.0  1.000E-20
      350.0  1.000E-20
      360.0  1.000E-20
      370.0  1.000E-20
      380.0  1.000E-20
      390.0  1.000E-20
      400.0  1.000E-20
      410.0  1.000E-20
      420.0  1.000E-20
      430.0  1.000E-20
      440.0  1.000E-20
      450.0  1.000E-20
      460.0  1.000E-20
      470.0  1.000E-20
      480.0  1.000E-20
      490.0  1.000E-20
      500.0  1.000E-20
      510.0  1.000E-20
      520.0  1.000E-20
      530.0  1.000E-20
      540.0  1.000E-20
      550.0  1.000E-20
      560.0  1.000E-20
      570.0  1.000E-20
      580.0  1.000E-20
      590.0  1.000E-20
      600.0  1.000E-20
      610.0  1.000E-20
      620.0  1.000E-20
      630.0  1.000E-20
      640.0  1.000E-20
      650.0  1.000E-20
      660.0  1.000E-20
      670.0  1.000E-20
      680.0  1.000E-20
      690.0  1.000E-20
      700.0  1.000E-20
      710.0  1.000E-20
      720.0  1.000E-20
      730.0  1.000E-20
      740.0  1.000E-20
      750.0  1.000E-20
      760.0  1.000E-20
      770.0  1.000E-20
      780.0  1.000E-20
      790.0  1.000E-20
      800.0  1.000E-20
      810.0  1.000E-20
      820.0  1.000E-20
      830.0  1.000E-20
      840.0  1.000E-20
      850.0  1.000E-20
      860.0  1.000E-20
      870.0  1.000E-20
      880.0  1.000E-20
      890.0  1.000E-20
      900.0  1.000E-20
      910.0  1.000E-20
      920.0  1.000E-20
      930.0  1.000E-20
      940.0  1.000E-20
      950.0  1.000E-20
      960.0  1.000E-20
      970.0  1.000E-20
      980.0  1.000E-20
      990.0  1.000E-20
     1000.0  1.000E-20
     1010.0  1.000E-20
     1020.0  1.000E-20
     1030.0  1.000E-20
     1040.0  1.000E-20
     1050.0  1.000E-20
     1060.0  1.000E-20
     1070.0  1.000E-20
     1080.0  1.000E-20
     1090.0  1.000E-20
     1100.0  1.000E-20
     1110.0  1.000E-20
     1120.0  1.000E-20
     1130.0  1.000E-20
     1140.0  1.000E-20
     1150.0  1.000E-20
     1160.0  1.000E-20
     1170.0  1.000E-20
     1180.0  1.000E-20
     1190.0  1.000E-20
     1200.0  1.000E-20
     1210.0  1.000E-20
     1220.0  1.000E-20
     1230.0  1.000E-20
     1240.0  1.000E-20
     1250.0  1.000E-20
     1260.0  1.000E-20
     1270.0  1.000E-20
     1280.0  1.000E-20
     1290.0  1.000E-20
     1300.0  1.000E-20
     1310.0  1.000E-20
     1320.0  1.000E-20
     1330.0  1.000E-20
     1340.0  1.000E-20
     1350.0  1.000E-20
     1360.0  1.000E-20
     1370.0  1.000E-20
     1380.0  1.000E-20
     1390.0  1.000E-20
     1400.0  1.000E-20
     1410.0  1.000E-20
     1420.0  1.000E-20
     1430.0  1.000E-20
     1440.0  1.000E-20
     1450.0  1.000E-20
     1460.0  1.000E-20
     1470.0  1.000E-20
     1480.0  1.000E-20
     1490.0  1.000E-20
     1500.0  1.000E-20
     1510.0  1.000E-20
     1520.0  1.000E-20
     1530.0  1.000E-20
     1540.0  1.000E-20
     1550.0  1.000E-20
     1560.0  1.000E-20
     1570.0  1.000E-20
     1580.0  1.000E-20
     1590.0  1.000E-20
     1600.0  1.000E-20
     1610.0  1.000E-20
     1620.0  1.000E-20
     1630.0  1.000E-20
     1640.0  1.000E-20
     1650.0  1.000E-20
     1660.0  1.000E-20
     1670.0  1.000E-20
     1680.0  1.000E-20
     1690.0  1.000E-20
     1700.0  1.000E-20
     1710.0  1.000E-20
     1720.0  1.000E-20
     1730.0  1.000E-20
     1740.0  1.000E-20
     1750.0  1.000E-20
     1760.0  1.000E-20
     1770.0  1.000E-20
     1780.0  1.000E-20
     1790.0  1.000E-20
     1800.0  1.000E-20
     1810.0  1.000E-20
     1820.0  1.000E-20
     1830.0  1.000E-20
     1840.0  1.000E-20
     1850.0  1.000E-20
     1860.0  1.000E-20
     1870.0  1.000E-20
     1880.0  1.000E-20
     1890.0  1.000E-20
     1900.0  1.000E-20
     1910.0  1.000E-20
     1920.0  1.000E-20
     1930.0  1.000E-20
     1940.0  1.000E-20
     1950.0  1.000E-20
     1960.0  1.000E-20
     1970.0  1.000E-20
     1980.0  1.000E-20
     1990.0  1.000E-20
     2000.0  1.000E-20
     2010.0  1.000E-20
     2020.0  1.000E-20
     2030.0  1.000E-20
     2040.0  1.000E-20
     2050.0  1.000E-20
     2060.0  1.000E-20
     2070.0  1.000E-20
     2080.0  1.000E-20
     2090.0  1.000E-20
     2100.0  1.000E-20
     2110.0  1.000E-20
     2120.0  1.000E-20
     2130.0  1.000E-20
     2140.0  1.000E-20
     2150.0  1.000E-20
     2160.0  1.000E-20
     2170.0  1.000E-20
     2180.0  1.000E-20
     2190.0  1.000E-20
     2200.0  1.000E-20
     2210.0  1.000E-20
     2220.0  1.000E-20
     2230.0  1.000E-20
     2240.0  1.000E-20
     2250.0  1.000E-20
     2260.0  1.000E-20
     2270.0  1.000E-20
     2280.0  1.000E-20
     2290.0  1.000E-20
     2300.0  1.000E-20
     2310.0  1.000E-20
     2320.0  1.000E-20
     2330.0  1.000E-20
     2340.0  1.000E-20
     2350.0  1.000E-20
     2360.0  1.000E-20
     2370.0  1.000E-20
     2380.0  1.000E-20
     2390.0  1.000E-20
     2400.0  1.000E-20
     2410.0  1.000E-20
     2420.0  1.000E-20
     2430.0  1.000E-20
     2440.0  1.000E-20
     2450.0  1.000E-20
     2460.0  1.000E-20
     2470.0  1.000E-20
     2480.0  1.000E-20
     2490.0  1.000E-20
        0.0  1.000E-20
      341.4  1.000E-20
      682.7  1.000E-20
     1024.1  1.000E-20
     1365.5  1.000E-20
     1706.8  1.000E-20
     2048.2  1.000E-20
     2389.6  1.000E-20
     2730.9  1.000E-20
     3072.3  1.000E-20
     3413.7  1.000E-20
     3755.0  1.000E-20
     4096.4  1.000E-20
     4437.8  1.000E-20
     4779.1  1.000E-20
     5120.5  1.000E-20
     5461.8  1.000E-20
     5803.2  1.000E-20
     6144.6  1.000E-20
     6485.9  1.000E-20
     6827.3  1.000E-20
     7168.7  1.000E-20
     7510.0  1.000E-20
     7851.4  1.000E-20
     8192.8  1.000E-20
     8534.1  1.000E-20
     8875.5  1.000E-20
     9216.9  1.000E-20
     9558.2  1.000E-20
     9899.6  1.000E-20
    10241.0  1.000E-20
    10582.3  1.000E-20
    10923.7  1.000E-20
    11265.1  1.000E-20
    11606.4  1.000E-20
    11947.8  1.000E-20
    12289.2  1.000E-20
    12630.5  1.000E-20
    12971.9  1.000E-20
    13313.3  1.000E-20
    13654.6  1.000E-20
    13996.0  1.000E-20
    14337.3  1.000E-20
    14678.7  1.000E-20
    15020.1  1.000E-20
    15361.4  1.000E-20
    15702.8  1.000E-20
    16044.2  1.000E-20
    16385.5  1.000E-20
    16726.9  1.000E-20
    17068.3  1.000E-20
    17409.6  1.000E-20
    17751.0  1.000E-20
    18092.4  1.000E-20
    18433.7  1.000E-20
    18775.1  1.000E-20
    19116.5  1.000E-20
    19457.8  1.000E-20
    19799.2  1.000E-20
    20140.6  1.000E-20
    20481.9  1.000E-20
    20823.3  1.000E-20
    21164.7  1.000E-20
    21506.0  1.000E-20
    21847.4  1.000E-20
    22188.8  1.000E-20
    22530.1  1.000E-20
    22871.5  1.000E-20
    23212.9  1.000E-20
    23554.2  1.000E-20
    23895.6  1.000E-20
    24236.9  1.000E-20
    24578.3  1.000E-20
    24919.7  1.000E-20
    25261.0  1.000E-20
    25602.4  1.000E-20
    25943.8  1.000E-20
    26285.1  1.000E-20
    26626.5  1.000E-20
    26967.9  1.000E-20
    27309.2  1.000E-20
    27650.6  1.000E-20
    27992.0  1.000E-20
    28333.3  1.000E-20
    28674.7  1.000E-20
    29016.1  1.000E-20
    29357.4  1.000E-20
    29698.8  1.000E-20
    30040.2  1.000E-20
    30381.5  1.000E-20
    30722.9  1.000E-20
    31064.3  1.000E-20
    31405.6  1.000E-20
    31747.0  1.000E-20
    32088.4  1.000E-20
    32429.7  1.000E-20
    32771.1  1.000E-20
    33112.4  1.000E-20
    33453.8  1.000E-20
    33795.2  1.000E-20
    34136.5  1.000E-20
    34477.9  1.000E-20
    34819.3  1.000E-20
    35160.6  1.000E-20
    35502.0  1.000E-20
    35843.4  1.000E-20
    36184.7  1.000E-20
    36526.1  1.000E-20
    36867.5  1.000E-20
    37208.8  1.000E-20
    37550.2  1.000E-20
    37891.6  1.000E-20
    38232.9  1.000E-20
    38574.3  1.000E-20
    38915.7  1.000E-20
    39257.0  1.000E-20
    39598.4  1.000E-20
    39939.8  1.000E-20
    40281.1  1.000E-20
    40622.5  1.000E-20
    40963.9  1.000E-20
    41305.2  1.000E-20
    41646.6  1.000E-20
    41988.0  1.000E-20
    42329.3  1.000E-20
    42670.7  1.000E-20
    43012.0  1.000E-20
    43353.4  1.000E-20
    43694.8  1.000E-20
    44036.1  1.000E-20
    44377.5  1.000E-20
    44718.9  1.000E-20
    45060.2  1.000E-20
    45401.6  1.000E-20
    45743.0  1.000E-20
    46084.3  1.000E-20
    46425.7  1.000E-20
    46767.1  1.000E-20
    47108.4  1.000E-20
    47449.8  1.000E-20
    47791.2  1.000E-20
    48132.5  1.000E-20
    48473.9  1.000E-20
    48815.3  1.000E-20
    49156.6  1.000E-20
    49498.0  1.000E-20
    49839.4  1.000E-20
    50180.7  1.000E-20
    50522.1  1.000E-20
    50863.5  1.000E-20
    51204.8  1.000E-20
    51546.2  1.000E-20
    51887.6  1.000E-20
    52228.9  1.000E-20
    52570.3  1.000E-20
    52911.6  1.000E-20
    53253.0  1.000E-20
    53594.4  1.000E-20
    53935.7  1.000E-20
    54277.1  1.000E-20
    54618.5  1.000E-20
    54959.8  1.000E-20
    55301.2  1.000E-20
    55642.6  1.000E-20
    55983.9  1.000E-20
    56325.3  1.000E-20
    56666.7  1.000E-20
    57008.0  1.000E-20
    57349.4  1.000E-20
    57690.8  1.000E-20
    58032.1  1.000E-20
    58373.5  1.000E-20
    58714.9  1.000E-20
    59056.2  1.000E-20
    59397.6  1.000E-20
    59739.0  1.000E-20
    60080.3  1.000E-20
    60421.7  1.000E-20
    60763.1  1.000E-20
    61104.4  1.000E-20
    61445.8  1.000E-20
    61787.1  1.000E-20
    62128.5  1.000E-20
    62469.9  1.000E-20
    62811.2  1.000E-20
    63152.6  1.000E-20
    63494.0  1.000E-20
    63835.3  1.000E-20
    64176.7  1.000E-20
    64518.1  1.000E-20
    64859.4  1.000E-20
    65200.8  1.000E-20
    65542.2  1.000E-20
    65883.5  1.000E-20
    66224.9  1.000E-20
    66566.3  1.000E-20
    66907.6  1.000E-20
    67249.0  1.000E-20
    67590.4  1.000E-20
    67931.7  1.000E-20
    68273.1  1.000E-20
    68614.5  1.000E-20
    68955.8  1.000E-20
    69297.2  1.000E-20
    69638.6  1.000E-20
    69979.9  1.000E-20
    70321.3  1.000E-20
    70662.7  1.000E-20
    71004.0  1.000E-20
    71345.4  1.000E-20
    71686.7  1.000E-20
    72028.1  1.000E-20
    72369.5  1.000E-20
    72710.8  1.000E-20
    73052.2  1.000E-20
    73393.6  1.000E-20
    73734.9  1.000E-20
    74076.3  1.000E-20
    74417.7  1.000E-20
    74759.0  1.000E-20
    75100.4  1.000E-20
    75441.8  1.000E-20
    75783.1  1.000E-20
    76124.5  1.000E-20
    76465.9  1.000E-20
    76807.2  1.000E-20
    77148.6  1.000E-20
    77490.0  1.000E-20
    77831.3  1.000E-20
    78172.7  1.000E-20
    78514.1  1.000E-20
    78855.4  1.000E-20
    79196.8  1.000E-20
    79538.2  1.000E-20
    79879.5  1.000E-20
    80220.9  1.000E-20
    80562.2  1.000E-20
    80903.6  1.000E-20
    81245.0  1.000E-20
    81586.3  1.000E-20
    81927.7  1.000E-20
    82269.1  1.000E-20
    82610.4  1.000E-20
    82951.8  1.000E-20
    83293.2  1.000E-20
    83634.5  1.000E-20
    83975.9  1.000E-20
    84317.3  1.000E-20
    84658.6  1.000E-20
    85000.0  1.000E-20

....................................................
          2020/08/27   08:45:40.271   (Local Time)
          year/mm/dd   hr:mi:second
                 CPU :        0.488 s (  0.000 hr)
....................................................

RESULTS FOR 1.E+03 TRIALS
****Shifted Thermal (at Tvib)****
     Tvib   = 1500.0 K
     Ttrans = 1500.0 K
     Press  =  1.500E-02 bar 
          N =  7.243E+16 /cm3
Coll. Freq. =  3.573E+07 /s at E =  2490.0 cm-1
Initial Molecule: Ge2H6_____
E(shift) =       0.0 cm-1
Starting random number seed = 1948868851
Ending   random number seed = 1103490662


CUMULATIVE DISTRIBUTION FXNS FOR STARTING ENERGIES (Pstart)

    ENERGY   P(calc)    P(actual) 
        0.0  1.787E-06  0.000E+00
       94.6  3.574E-06  0.000E+00
      189.2  4.568E-06  0.000E+00
      283.8  6.469E-06  0.000E+00
      378.4  9.448E-06  0.000E+00
      473.0  1.455E-05  0.000E+00
      567.6  2.241E-05  0.000E+00
      662.2  3.388E-05  0.000E+00
      756.8  4.598E-05  0.000E+00
      851.4  6.304E-05  0.000E+00
      946.0  8.280E-05  0.000E+00
     1040.6  1.057E-04  0.000E+00
     1135.2  1.348E-04  0.000E+00
     1229.8  1.689E-04  0.000E+00
     1324.4  2.110E-04  0.000E+00
     1419.0  2.570E-04  0.000E+00
     1513.6  3.085E-04  0.000E+00
     1608.2  3.725E-04  0.000E+00
     1702.8  4.520E-04  0.000E+00
     1797.4  5.477E-04  0.000E+00
     1892.0  6.649E-04  0.000E+00
     1986.6  8.036E-04  0.000E+00
     2081.2  9.624E-04  0.000E+00
     2175.8  1.141E-03  0.000E+00
     2270.4  1.340E-03  0.000E+00
     2365.0  1.560E-03  0.000E+00
     2459.6  1.810E-03  1.000E-03
     2554.2  2.095E-03  1.000E-03
     2648.8  2.415E-03  1.000E-03
     2743.4  2.777E-03  1.000E-03
     2838.0  3.180E-03  2.000E-03
     2932.6  3.630E-03  2.000E-03
     3027.2  4.129E-03  2.000E-03
     3121.8  4.683E-03  2.000E-03
     3216.4  5.289E-03  2.000E-03
     3311.0  5.951E-03  5.000E-03
     3405.6  6.674E-03  5.000E-03
     3500.2  7.461E-03  5.000E-03
     3594.8  8.318E-03  6.000E-03
     3689.4  9.249E-03  6.000E-03
     3784.0  1.026E-02  7.000E-03
     3878.6  1.136E-02  7.000E-03
     3973.2  1.254E-02  9.000E-03
     4067.8  1.382E-02  9.000E-03
     4162.4  1.520E-02  1.100E-02
     4257.0  1.667E-02  1.200E-02
     4351.6  1.824E-02  1.400E-02
     4446.2  1.991E-02  1.400E-02
     4540.8  2.169E-02  1.500E-02
     4635.3  2.358E-02  1.600E-02
     4729.9  2.559E-02  1.800E-02
     4824.5  2.773E-02  1.900E-02
     4919.1  2.999E-02  2.100E-02
     5013.7  3.238E-02  2.500E-02
     5108.3  3.492E-02  2.900E-02
     5202.9  3.760E-02  3.200E-02
     5297.5  4.042E-02  3.600E-02
     5392.1  4.338E-02  3.700E-02
     5486.7  4.650E-02  4.300E-02
     5581.3  4.977E-02  4.700E-02
     5675.9  5.318E-02  4.800E-02
     5770.5  5.674E-02  5.100E-02
     5865.1  6.045E-02  5.300E-02
     5959.7  6.430E-02  5.800E-02
     6054.3  6.830E-02  6.000E-02
     6148.9  7.245E-02  6.900E-02
     6243.5  7.675E-02  7.200E-02
     6338.1  8.121E-02  7.500E-02
     6432.7  8.583E-02  7.900E-02
     6527.3  9.062E-02  8.800E-02
     6621.9  9.557E-02  9.700E-02
     6716.5  1.007E-01  1.010E-01
     6811.1  1.060E-01  1.080E-01
     6905.7  1.114E-01  1.110E-01
     7000.3  1.170E-01  1.140E-01
     7094.9  1.227E-01  1.200E-01
     7189.5  1.285E-01  1.220E-01
     7284.1  1.346E-01  1.290E-01
     7378.7  1.408E-01  1.310E-01
     7473.3  1.472E-01  1.380E-01
     7567.9  1.537E-01  1.430E-01
     7662.5  1.604E-01  1.500E-01
     7757.1  1.672E-01  1.530E-01
     7851.7  1.742E-01  1.610E-01
     7946.3  1.813E-01  1.670E-01
     8040.9  1.885E-01  1.760E-01
     8135.5  1.959E-01  1.780E-01
     8230.1  2.034E-01  1.840E-01
     8324.7  2.110E-01  1.880E-01
     8419.3  2.187E-01  1.970E-01
     8513.9  2.265E-01  2.050E-01
     8608.5  2.345E-01  2.160E-01
     8703.1  2.425E-01  2.230E-01
     8797.7  2.507E-01  2.340E-01
     8892.3  2.589E-01  2.380E-01
     8986.9  2.672E-01  2.440E-01
     9081.5  2.757E-01  2.540E-01
     9176.1  2.842E-01  2.620E-01
     9270.7  2.927E-01  2.730E-01
     9365.3  3.014E-01  2.800E-01
     9459.9  3.101E-01  2.830E-01
     9554.5  3.189E-01  2.910E-01
     9649.1  3.277E-01  2.990E-01
     9743.7  3.366E-01  3.080E-01
     9838.3  3.455E-01  3.150E-01
     9932.9  3.545E-01  3.270E-01
    10027.5  3.635E-01  3.380E-01
    10122.1  3.726E-01  3.530E-01
    10216.7  3.817E-01  3.580E-01
    10311.3  3.909E-01  3.670E-01
    10405.9  4.000E-01  3.740E-01
    10500.5  4.092E-01  3.910E-01
    10595.1  4.184E-01  4.020E-01
    10689.7  4.276E-01  4.130E-01
    10784.3  4.368E-01  4.250E-01
    10878.9  4.460E-01  4.340E-01
    10973.5  4.552E-01  4.460E-01
    11068.1  4.643E-01  4.610E-01
    11162.7  4.734E-01  4.690E-01
    11257.3  4.825E-01  4.770E-01
    11351.9  4.916E-01  4.860E-01
    11446.5  5.006E-01  4.960E-01
    11541.1  5.096E-01  5.070E-01
    11635.7  5.186E-01  5.150E-01
    11730.3  5.275E-01  5.250E-01
    11824.9  5.363E-01  5.370E-01
    11919.5  5.451E-01  5.500E-01
    12014.1  5.538E-01  5.570E-01
    12108.7  5.625E-01  5.670E-01
    12203.3  5.711E-01  5.760E-01
    12297.9  5.796E-01  5.890E-01
    12392.5  5.881E-01  6.020E-01
    12487.1  5.965E-01  6.140E-01
    12581.7  6.048E-01  6.190E-01
    12676.3  6.131E-01  6.290E-01
    12770.9  6.213E-01  6.410E-01
    12865.5  6.294E-01  6.460E-01
    12960.1  6.375E-01  6.550E-01
    13054.7  6.454E-01  6.620E-01
    13149.3  6.533E-01  6.680E-01
    13243.9  6.610E-01  6.780E-01
    13338.5  6.687E-01  6.850E-01
    13433.1  6.762E-01  6.910E-01
    13527.7  6.837E-01  6.980E-01
    13622.3  6.910E-01  7.000E-01
    13716.8  6.982E-01  7.070E-01
    13811.4  7.054E-01  7.100E-01
    13906.0  7.124E-01  7.150E-01
    14000.6  7.193E-01  7.260E-01
    14095.2  7.262E-01  7.330E-01
    14189.8  7.329E-01  7.400E-01
    14284.4  7.395E-01  7.470E-01
    14379.0  7.460E-01  7.500E-01
    14473.6  7.524E-01  7.590E-01
    14568.2  7.586E-01  7.660E-01
    14662.8  7.648E-01  7.700E-01
    14757.4  7.709E-01  7.730E-01
    14852.0  7.768E-01  7.770E-01
    14946.6  7.827E-01  7.850E-01
    15041.2  7.885E-01  7.940E-01
    15135.8  7.941E-01  7.970E-01
    15230.4  7.997E-01  8.010E-01
    15325.0  8.051E-01  8.060E-01
    15419.6  8.105E-01  8.120E-01
    15514.2  8.157E-01  8.150E-01
    15608.8  8.208E-01  8.230E-01
    15703.4  8.258E-01  8.300E-01
    15798.0  8.307E-01  8.350E-01
    15892.6  8.355E-01  8.370E-01
    15987.2  8.402E-01  8.440E-01
    16081.8  8.448E-01  8.480E-01
    16176.4  8.493E-01  8.530E-01
    16271.0  8.537E-01  8.550E-01
    16365.6  8.580E-01  8.580E-01
    16460.2  8.622E-01  8.630E-01
    16554.8  8.663E-01  8.650E-01
    16649.4  8.702E-01  8.700E-01
    16744.0  8.741E-01  8.740E-01
    16838.6  8.779E-01  8.770E-01
    16933.2  8.817E-01  8.810E-01
    17027.8  8.853E-01  8.860E-01
    17122.4  8.888E-01  8.910E-01
    17217.0  8.922E-01  8.950E-01
    17311.6  8.956E-01  8.950E-01
    17406.2  8.989E-01  8.970E-01
    17500.8  9.020E-01  8.990E-01
    17595.4  9.051E-01  9.030E-01
    17690.0  9.082E-01  9.040E-01
    17784.6  9.111E-01  9.040E-01
    17879.2  9.140E-01  9.070E-01
    17973.8  9.168E-01  9.080E-01
    18068.4  9.195E-01  9.090E-01
    18163.0  9.222E-01  9.160E-01
    18257.6  9.247E-01  9.190E-01
    18352.2  9.272E-01  9.210E-01
    18446.8  9.297E-01  9.230E-01
    18541.4  9.320E-01  9.250E-01
    18636.0  9.343E-01  9.250E-01
    18730.6  9.365E-01  9.290E-01
    18825.2  9.387E-01  9.330E-01
    18919.8  9.408E-01  9.370E-01
    19014.4  9.428E-01  9.380E-01
    19109.0  9.448E-01  9.400E-01
    19203.6  9.467E-01  9.420E-01
    19298.2  9.485E-01  9.450E-01
    19392.8  9.503E-01  9.470E-01
    19487.4  9.521E-01  9.480E-01
    19582.0  9.538E-01  9.530E-01
    19676.6  9.554E-01  9.540E-01
    19771.2  9.570E-01  9.560E-01
    19865.8  9.585E-01  9.590E-01
    19960.4  9.600E-01  9.610E-01
    20055.0  9.615E-01  9.650E-01
    20149.6  9.629E-01  9.680E-01
    20244.2  9.642E-01  9.680E-01
    20338.8  9.655E-01  9.700E-01
    20433.4  9.668E-01  9.710E-01
    20528.0  9.680E-01  9.720E-01
    20622.6  9.692E-01  9.720E-01
    20717.2  9.704E-01  9.740E-01
    20811.8  9.715E-01  9.760E-01
    20906.4  9.725E-01  9.770E-01
    21001.0  9.736E-01  9.780E-01
    21095.6  9.746E-01  9.780E-01
    21190.2  9.755E-01  9.790E-01
    21284.8  9.765E-01  9.810E-01
    21379.4  9.774E-01  9.810E-01
    21474.0  9.782E-01  9.830E-01
    21568.6  9.791E-01  9.830E-01
    21663.2  9.799E-01  9.830E-01
    21757.8  9.807E-01  9.840E-01
    21852.4  9.814E-01  9.860E-01
    21947.0  9.821E-01  9.870E-01
    22041.6  9.828E-01  9.880E-01
    22136.2  9.835E-01  9.880E-01
    22230.8  9.842E-01  9.880E-01
    22325.4  9.848E-01  9.880E-01
    22420.0  9.854E-01  9.880E-01
    22514.6  9.860E-01  9.880E-01
    22609.2  9.865E-01  9.880E-01
    22703.8  9.871E-01  9.890E-01
    22798.3  9.876E-01  9.890E-01
    22892.9  9.881E-01  9.900E-01
    22987.5  9.886E-01  9.920E-01
    23082.1  9.890E-01  9.920E-01
    23176.7  9.895E-01  9.930E-01
    23271.3  9.899E-01  9.930E-01
    23365.9  9.903E-01  9.950E-01
    23460.5  9.907E-01  9.950E-01
    23555.1  9.911E-01  9.960E-01
    23649.7  9.915E-01  9.960E-01
    23744.3  9.918E-01  9.960E-01
    23838.9  9.922E-01  9.970E-01
    23933.5  9.925E-01  9.970E-01
    24028.1  9.928E-01  9.970E-01
    24122.7  9.931E-01  9.970E-01
    24217.3  9.934E-01  9.970E-01
    24311.9  9.937E-01  9.970E-01
    24406.5  9.940E-01  9.970E-01
    24501.1  9.942E-01  9.990E-01
    24595.7  9.945E-01  9.990E-01
    24690.3  9.947E-01  1.000E+00

....................................................
          2020/08/27   08:45:40.752   (Local Time)
          year/mm/dd   hr:mi:second
                 CPU :        0.967 s (  0.000 hr)
....................................................

RESULTS FOR 1.E+03 TRIALS
****Shifted Thermal (at Tvib)****
     Tvib   = 1500.0 K
     Ttrans = 1500.0 K
     Press  =  1.000E+02 bar 
          N =  4.829E+20 /cm3
Coll. Freq. =  2.382E+11 /s at E =  2490.0 cm-1
Initial Molecule: Ge2H6_____
E(shift) =       0.0 cm-1
Starting random number seed = 1103490662
Ending   random number seed =  230081658


CUMULATIVE DISTRIBUTION FXNS FOR STARTING ENERGIES (Pstart)

    ENERGY   P(calc)    P(actual) 
        0.0  1.787E-06  0.000E+00
       94.6  3.574E-06  0.000E+00
      189.2  4.568E-06  0.000E+00
      283.8  6.469E-06  0.000E+00
      378.4  9.448E-06  0.000E+00
      473.0  1.455E-05  0.000E+00
      567.6  2.241E-05  0.000E+00
      662.2  3.388E-05  0.000E+00
      756.8  4.598E-05  0.000E+00
      851.4  6.304E-05  0.000E+00
      946.0  8.280E-05  0.000E+00
     1040.6  1.057E-04  0.000E+00
     1135.2  1.348E-04  0.000E+00
     1229.8  1.689E-04  0.000E+00
     1324.4  2.110E-04  0.000E+00
     1419.0  2.570E-04  0.000E+00
     1513.6  3.085E-04  0.000E+00
     1608.2  3.725E-04  0.000E+00
     1702.8  4.520E-04  0.000E+00
     1797.4  5.477E-04  0.000E+00
     1892.0  6.649E-04  0.000E+00
     1986.6  8.036E-04  0.000E+00
     2081.2  9.624E-04  0.000E+00
     2175.8  1.141E-03  0.000E+00
     2270.4  1.340E-03  1.000E-03
     2365.0  1.560E-03  1.000E-03
     2459.6  1.810E-03  2.000E-03
     2554.2  2.095E-03  4.000E-03
     2648.8  2.415E-03  4.000E-03
     2743.4  2.777E-03  4.000E-03
     2838.0  3.180E-03  4.000E-03
     2932.6  3.630E-03  4.000E-03
     3027.2  4.129E-03  4.000E-03
     3121.8  4.683E-03  5.000E-03
     3216.4  5.289E-03  5.000E-03
     3311.0  5.951E-03  6.000E-03
     3405.6  6.674E-03  6.000E-03
     3500.2  7.461E-03  8.000E-03
     3594.8  8.318E-03  1.100E-02
     3689.4  9.249E-03  1.100E-02
     3784.0  1.026E-02  1.100E-02
     3878.6  1.136E-02  1.200E-02
     3973.2  1.254E-02  1.300E-02
     4067.8  1.382E-02  1.300E-02
     4162.4  1.520E-02  1.500E-02
     4257.0  1.667E-02  1.600E-02
     4351.6  1.824E-02  1.600E-02
     4446.2  1.991E-02  1.900E-02
     4540.8  2.169E-02  2.100E-02
     4635.3  2.358E-02  2.500E-02
     4729.9  2.559E-02  2.700E-02
     4824.5  2.773E-02  2.800E-02
     4919.1  2.999E-02  3.000E-02
     5013.7  3.238E-02  3.100E-02
     5108.3  3.492E-02  3.400E-02
     5202.9  3.760E-02  3.500E-02
     5297.5  4.042E-02  4.000E-02
     5392.1  4.338E-02  4.200E-02
     5486.7  4.650E-02  4.600E-02
     5581.3  4.977E-02  4.700E-02
     5675.9  5.318E-02  5.100E-02
     5770.5  5.674E-02  5.500E-02
     5865.1  6.045E-02  5.500E-02
     5959.7  6.430E-02  5.800E-02
     6054.3  6.830E-02  6.300E-02
     6148.9  7.245E-02  6.900E-02
     6243.5  7.675E-02  7.100E-02
     6338.1  8.121E-02  7.900E-02
     6432.7  8.583E-02  8.400E-02
     6527.3  9.062E-02  9.200E-02
     6621.9  9.557E-02  9.500E-02
     6716.5  1.007E-01  1.000E-01
     6811.1  1.060E-01  1.050E-01
     6905.7  1.114E-01  1.120E-01
     7000.3  1.170E-01  1.150E-01
     7094.9  1.227E-01  1.190E-01
     7189.5  1.285E-01  1.250E-01
     7284.1  1.346E-01  1.290E-01
     7378.7  1.408E-01  1.310E-01
     7473.3  1.472E-01  1.380E-01
     7567.9  1.537E-01  1.460E-01
     7662.5  1.604E-01  1.520E-01
     7757.1  1.672E-01  1.540E-01
     7851.7  1.742E-01  1.660E-01
     7946.3  1.813E-01  1.740E-01
     8040.9  1.885E-01  1.820E-01
     8135.5  1.959E-01  1.930E-01
     8230.1  2.034E-01  2.030E-01
     8324.7  2.110E-01  2.070E-01
     8419.3  2.187E-01  2.150E-01
     8513.9  2.265E-01  2.230E-01
     8608.5  2.345E-01  2.270E-01
     8703.1  2.425E-01  2.340E-01
     8797.7  2.507E-01  2.440E-01
     8892.3  2.589E-01  2.510E-01
     8986.9  2.672E-01  2.600E-01
     9081.5  2.757E-01  2.630E-01
     9176.1  2.842E-01  2.710E-01
     9270.7  2.927E-01  2.810E-01
     9365.3  3.014E-01  2.980E-01
     9459.9  3.101E-01  3.070E-01
     9554.5  3.189E-01  3.140E-01
     9649.1  3.277E-01  3.200E-01
     9743.7  3.366E-01  3.310E-01
     9838.3  3.455E-01  3.400E-01
     9932.9  3.545E-01  3.490E-01
    10027.5  3.635E-01  3.610E-01
    10122.1  3.726E-01  3.700E-01
    10216.7  3.817E-01  3.800E-01
    10311.3  3.909E-01  3.890E-01
    10405.9  4.000E-01  4.030E-01
    10500.5  4.092E-01  4.170E-01
    10595.1  4.184E-01  4.320E-01
    10689.7  4.276E-01  4.420E-01
    10784.3  4.368E-01  4.480E-01
    10878.9  4.460E-01  4.590E-01
    10973.5  4.552E-01  4.690E-01
    11068.1  4.643E-01  4.790E-01
    11162.7  4.734E-01  4.890E-01
    11257.3  4.825E-01  4.970E-01
    11351.9  4.916E-01  5.080E-01
    11446.5  5.006E-01  5.140E-01
    11541.1  5.096E-01  5.200E-01
    11635.7  5.186E-01  5.300E-01
    11730.3  5.275E-01  5.370E-01
    11824.9  5.363E-01  5.450E-01
    11919.5  5.451E-01  5.570E-01
    12014.1  5.538E-01  5.630E-01
    12108.7  5.625E-01  5.650E-01
    12203.3  5.711E-01  5.750E-01
    12297.9  5.796E-01  5.850E-01
    12392.5  5.881E-01  5.940E-01
    12487.1  5.965E-01  6.010E-01
    12581.7  6.048E-01  6.110E-01
    12676.3  6.131E-01  6.240E-01
    12770.9  6.213E-01  6.330E-01
    12865.5  6.294E-01  6.390E-01
    12960.1  6.375E-01  6.500E-01
    13054.7  6.454E-01  6.620E-01
    13149.3  6.533E-01  6.660E-01
    13243.9  6.610E-01  6.760E-01
    13338.5  6.687E-01  6.850E-01
    13433.1  6.762E-01  6.910E-01
    13527.7  6.837E-01  6.990E-01
    13622.3  6.910E-01  7.050E-01
    13716.8  6.982E-01  7.110E-01
    13811.4  7.054E-01  7.170E-01
    13906.0  7.124E-01  7.250E-01
    14000.6  7.193E-01  7.270E-01
    14095.2  7.262E-01  7.370E-01
    14189.8  7.329E-01  7.450E-01
    14284.4  7.395E-01  7.530E-01
    14379.0  7.460E-01  7.620E-01
    14473.6  7.524E-01  7.660E-01
    14568.2  7.586E-01  7.720E-01
    14662.8  7.648E-01  7.750E-01
    14757.4  7.709E-01  7.800E-01
    14852.0  7.768E-01  7.840E-01
    14946.6  7.827E-01  7.890E-01
    15041.2  7.885E-01  7.950E-01
    15135.8  7.941E-01  8.020E-01
    15230.4  7.997E-01  8.090E-01
    15325.0  8.051E-01  8.200E-01
    15419.6  8.105E-01  8.220E-01
    15514.2  8.157E-01  8.260E-01
    15608.8  8.208E-01  8.310E-01
    15703.4  8.258E-01  8.370E-01
    15798.0  8.307E-01  8.420E-01
    15892.6  8.355E-01  8.450E-01
    15987.2  8.402E-01  8.500E-01
    16081.8  8.448E-01  8.550E-01
    16176.4  8.493E-01  8.570E-01
    16271.0  8.537E-01  8.630E-01
    16365.6  8.580E-01  8.660E-01
    16460.2  8.622E-01  8.690E-01
    16554.8  8.663E-01  8.720E-01
    16649.4  8.702E-01  8.760E-01
    16744.0  8.741E-01  8.770E-01
    16838.6  8.779E-01  8.800E-01
    16933.2  8.817E-01  8.820E-01
    17027.8  8.853E-01  8.880E-01
    17122.4  8.888E-01  8.890E-01
    17217.0  8.922E-01  8.900E-01
    17311.6  8.956E-01  8.920E-01
    17406.2  8.989E-01  8.930E-01
    17500.8  9.020E-01  8.970E-01
    17595.4  9.051E-01  9.000E-01
    17690.0  9.082E-01  9.030E-01
    17784.6  9.111E-01  9.080E-01
    17879.2  9.140E-01  9.110E-01
    17973.8  9.168E-01  9.150E-01
    18068.4  9.195E-01  9.180E-01
    18163.0  9.222E-01  9.190E-01
    18257.6  9.247E-01  9.260E-01
    18352.2  9.272E-01  9.300E-01
    18446.8  9.297E-01  9.300E-01
    18541.4  9.320E-01  9.330E-01
    18636.0  9.343E-01  9.360E-01
    18730.6  9.365E-01  9.360E-01
    18825.2  9.387E-01  9.370E-01
    18919.8  9.408E-01  9.380E-01
    19014.4  9.428E-01  9.390E-01
    19109.0  9.448E-01  9.420E-01
    19203.6  9.467E-01  9.450E-01
    19298.2  9.485E-01  9.470E-01
    19392.8  9.503E-01  9.490E-01
    19487.4  9.521E-01  9.510E-01
    19582.0  9.538E-01  9.530E-01
    19676.6  9.554E-01  9.540E-01
    19771.2  9.570E-01  9.570E-01
    19865.8  9.585E-01  9.590E-01
    19960.4  9.600E-01  9.640E-01
    20055.0  9.615E-01  9.650E-01
    20149.6  9.629E-01  9.650E-01
    20244.2  9.642E-01  9.670E-01
    20338.8  9.655E-01  9.680E-01
    20433.4  9.668E-01  9.690E-01
    20528.0  9.680E-01  9.710E-01
    20622.6  9.692E-01  9.720E-01
    20717.2  9.704E-01  9.720E-01
    20811.8  9.715E-01  9.730E-01
    20906.4  9.725E-01  9.740E-01
    21001.0  9.736E-01  9.750E-01
    21095.6  9.746E-01  9.760E-01
    21190.2  9.755E-01  9.770E-01
    21284.8  9.765E-01  9.770E-01
    21379.4  9.774E-01  9.780E-01
    21474.0  9.782E-01  9.780E-01
    21568.6  9.791E-01  9.780E-01
    21663.2  9.799E-01  9.790E-01
    21757.8  9.807E-01  9.790E-01
    21852.4  9.814E-01  9.790E-01
    21947.0  9.821E-01  9.790E-01
    22041.6  9.828E-01  9.800E-01
    22136.2  9.835E-01  9.800E-01
    22230.8  9.842E-01  9.820E-01
    22325.4  9.848E-01  9.820E-01
    22420.0  9.854E-01  9.830E-01
    22514.6  9.860E-01  9.830E-01
    22609.2  9.865E-01  9.840E-01
    22703.8  9.871E-01  9.850E-01
    22798.3  9.876E-01  9.850E-01
    22892.9  9.881E-01  9.860E-01
    22987.5  9.886E-01  9.870E-01
    23082.1  9.890E-01  9.870E-01
    23176.7  9.895E-01  9.870E-01
    23271.3  9.899E-01  9.880E-01
    23365.9  9.903E-01  9.890E-01
    23460.5  9.907E-01  9.890E-01
    23555.1  9.911E-01  9.900E-01
    23649.7  9.915E-01  9.900E-01
    23744.3  9.918E-01  9.900E-01
    23838.9  9.922E-01  9.900E-01
    23933.5  9.925E-01  9.900E-01
    24028.1  9.928E-01  9.900E-01
    24122.7  9.931E-01  9.920E-01
    24217.3  9.934E-01  9.920E-01
    24311.9  9.937E-01  9.920E-01
    24406.5  9.940E-01  9.940E-01
    24501.1  9.942E-01  9.940E-01
    24595.7  9.945E-01  9.940E-01
    24690.3  9.947E-01  9.950E-01
    24784.9  9.949E-01  9.950E-01
    24879.5  9.951E-01  9.950E-01
    24974.1  9.954E-01  9.960E-01
    25068.7  9.956E-01  9.960E-01
    25163.3  9.957E-01  9.960E-01
    25257.9  9.959E-01  9.960E-01
    25352.5  9.961E-01  9.960E-01
    25447.1  9.963E-01  9.970E-01
    25541.7  9.964E-01  9.970E-01
    25636.3  9.966E-01  9.970E-01
    25730.9  9.968E-01  9.980E-01
    25825.5  9.969E-01  9.980E-01
    25920.1  9.970E-01  9.980E-01
    26014.7  9.972E-01  9.980E-01
    26109.3  9.973E-01  9.990E-01
    26203.9  9.974E-01  9.990E-01
    26298.5  9.975E-01  9.990E-01
    26393.1  9.976E-01  9.990E-01
    26487.7  9.977E-01  9.990E-01
    26582.3  9.978E-01  9.990E-01
    26676.9  9.979E-01  9.990E-01
    26771.5  9.980E-01  9.990E-01
    26866.1  9.981E-01  9.990E-01
    26960.7  9.982E-01  9.990E-01
    27055.3  9.983E-01  9.990E-01
    27149.9  9.984E-01  9.990E-01
    27244.5  9.984E-01  9.990E-01
    27339.1  9.985E-01  9.990E-01
    27433.7  9.986E-01  9.990E-01
    27528.3  9.986E-01  9.990E-01
    27622.9  9.987E-01  9.990E-01
    27717.5  9.988E-01  9.990E-01
    27812.1  9.988E-01  9.990E-01
    27906.7  9.989E-01  9.990E-01
    28001.3  9.989E-01  9.990E-01
    28095.9  9.990E-01  9.990E-01
    28190.5  9.990E-01  9.990E-01
    28285.1  9.991E-01  9.990E-01
    28379.7  9.991E-01  9.990E-01
    28474.3  9.992E-01  9.990E-01
    28568.9  9.992E-01  9.990E-01
    28663.5  9.992E-01  9.990E-01
    28758.1  9.993E-01  9.990E-01
    28852.7  9.993E-01  9.990E-01
    28947.3  9.993E-01  9.990E-01
    29041.9  9.994E-01  9.990E-01
    29136.5  9.994E-01  9.990E-01
    29231.1  9.994E-01  9.990E-01
    29325.7  9.995E-01  9.990E-01
    29420.3  9.995E-01  9.990E-01
    29514.9  9.995E-01  1.000E+00
